## w(eV)         sigma(Sm^-1)     kappa(W(mK)^-1)        L12/e(Am^-1)      L22/e^2(Wm^-1)
    0.01              350868             608.619        -7.09355e+06         2.01067e+08
    0.03              350865             608.611        -7.09351e+06         2.01066e+08
    0.05              350859             608.595        -7.09344e+06         2.01064e+08
    0.07              350851             608.571        -7.09333e+06         2.01061e+08
    0.09              350840             608.539        -7.09318e+06         2.01056e+08
    0.11              350826             608.499        -7.09299e+06         2.01051e+08
    0.13              350809             608.451        -7.09277e+06         2.01044e+08
    0.15              350790             608.395        -7.09251e+06         2.01036e+08
    0.17              350768             608.331        -7.09222e+06         2.01027e+08
    0.19              350743             608.259        -7.09188e+06         2.01017e+08
    0.21              350715             608.179        -7.09151e+06         2.01006e+08
    0.23              350684             608.092         -7.0911e+06         2.00994e+08
    0.25              350651             607.996        -7.09066e+06          2.0098e+08
    0.27              350615             607.892        -7.09018e+06         2.00966e+08
    0.29              350576              607.78        -7.08966e+06          2.0095e+08
    0.31              350534             607.661         -7.0891e+06         2.00933e+08
    0.33              350490             607.533        -7.08851e+06         2.00915e+08
    0.35              350443             607.398        -7.08788e+06         2.00896e+08
    0.37              350393             607.254        -7.08721e+06         2.00876e+08
    0.39              350340             607.103         -7.0865e+06         2.00855e+08
    0.41              350285             606.944        -7.08576e+06         2.00832e+08
    0.43              350226             606.776        -7.08498e+06         2.00809e+08
    0.45              350165             606.601        -7.08417e+06         2.00784e+08
    0.47              350101             606.418        -7.08331e+06         2.00758e+08
    0.49              350035             606.227        -7.08242e+06         2.00731e+08
    0.51              349966             606.029        -7.08149e+06         2.00703e+08
    0.53              349893             605.822        -7.08053e+06         2.00674e+08
    0.55              349819             605.608        -7.07953e+06         2.00644e+08
    0.57              349741             605.385        -7.07849e+06         2.00613e+08
    0.59              349661             605.155        -7.07741e+06          2.0058e+08
    0.61              349577             604.917         -7.0763e+06         2.00547e+08
    0.63              349491             604.672        -7.07514e+06         2.00512e+08
    0.65              349403             604.418        -7.07396e+06         2.00476e+08
    0.67              349311             604.157        -7.07273e+06         2.00439e+08
    0.69              349217             603.888        -7.07147e+06         2.00401e+08
    0.71              349120             603.611        -7.07016e+06         2.00362e+08
    0.73              349021             603.326        -7.06883e+06         2.00322e+08
    0.75              348918             603.034        -7.06745e+06          2.0028e+08
    0.77              348813             602.734        -7.06604e+06         2.00238e+08
    0.79              348705             602.426        -7.06459e+06         2.00194e+08
    0.81              348594             602.111         -7.0631e+06          2.0015e+08
    0.83              348481             601.788        -7.06157e+06         2.00104e+08
    0.85              348365             601.457        -7.06001e+06         2.00057e+08
    0.87              348246             601.118        -7.05841e+06         2.00009e+08
    0.89              348124             600.772        -7.05677e+06         1.99959e+08
    0.91              348000             600.419        -7.05509e+06         1.99909e+08
    0.93              347873             600.058        -7.05338e+06         1.99858e+08
    0.95              347743             599.689        -7.05163e+06         1.99805e+08
    0.97              347610             599.313        -7.04984e+06         1.99751e+08
    0.99              347475             598.929        -7.04802e+06         1.99697e+08
    1.01              347337             598.538        -7.04615e+06         1.99641e+08
    1.03              347196             598.139        -7.04425e+06         1.99584e+08
    1.05              347052             597.732        -7.04231e+06         1.99526e+08
    1.07              346906             597.319        -7.04033e+06         1.99466e+08
    1.09              346757             596.898        -7.03832e+06         1.99406e+08
    1.11              346606             596.469        -7.03626e+06         1.99345e+08
    1.13              346451             596.033        -7.03417e+06         1.99282e+08
    1.15              346294              595.59        -7.03205e+06         1.99218e+08
    1.17              346134             595.139        -7.02988e+06         1.99154e+08
    1.19              345972             594.681        -7.02767e+06         1.99088e+08
    1.21              345806             594.216        -7.02543e+06         1.99021e+08
    1.23              345638             593.743        -7.02315e+06         1.98953e+08
    1.25              345468             593.263        -7.02083e+06         1.98884e+08
    1.27              345294             592.776        -7.01848e+06         1.98813e+08
    1.29              345118             592.282        -7.01608e+06         1.98742e+08
    1.31              344940              591.78        -7.01365e+06         1.98669e+08
    1.33              344758             591.271        -7.01118e+06         1.98596e+08
    1.35              344574             590.756        -7.00867e+06         1.98521e+08
    1.37              344387             590.233        -7.00612e+06         1.98445e+08
    1.39              344198             589.703        -7.00354e+06         1.98368e+08
    1.41              344005             589.166        -7.00091e+06          1.9829e+08
    1.43              343811             588.621        -6.99825e+06         1.98211e+08
    1.45              343613              588.07        -6.99555e+06          1.9813e+08
    1.47              343413             587.512        -6.99281e+06         1.98049e+08
    1.49              343210             586.947        -6.99003e+06         1.97967e+08
    1.51              343004             586.375        -6.98722e+06         1.97883e+08
    1.53              342796             585.796        -6.98436e+06         1.97798e+08
    1.55              342585              585.21        -6.98147e+06         1.97712e+08
    1.57              342371             584.618        -6.97854e+06         1.97626e+08
    1.59              342155             584.018        -6.97557e+06         1.97538e+08
    1.61              341936             583.412        -6.97256e+06         1.97448e+08
    1.63              341715             582.799        -6.96951e+06         1.97358e+08
    1.65              341491             582.179        -6.96643e+06         1.97267e+08
    1.67              341264             581.553         -6.9633e+06         1.97174e+08
    1.69              341034              580.92        -6.96014e+06         1.97081e+08
    1.71              340802              580.28        -6.95694e+06         1.96986e+08
    1.73              340567             579.633         -6.9537e+06         1.96891e+08
    1.75              340330              578.98        -6.95042e+06         1.96794e+08
    1.77              340090             578.321         -6.9471e+06         1.96696e+08
    1.79              339847             577.655        -6.94374e+06         1.96597e+08
    1.81              339602             576.982        -6.94035e+06         1.96497e+08
    1.83              339354             576.303        -6.93691e+06         1.96396e+08
    1.85              339104             575.618        -6.93343e+06         1.96293e+08
    1.87              338850             574.926        -6.92992e+06          1.9619e+08
    1.89              338595             574.228        -6.92637e+06         1.96085e+08
    1.91              338336             573.523        -6.92278e+06          1.9598e+08
    1.93              338075             572.812        -6.91914e+06         1.95873e+08
    1.95              337812             572.095        -6.91547e+06         1.95765e+08
    1.97              337546             571.372        -6.91176e+06         1.95656e+08
    1.99              337277             570.642        -6.90801e+06         1.95546e+08
    2.01              337005             569.906        -6.90422e+06         1.95435e+08
    2.03              336731             569.164         -6.9004e+06         1.95323e+08
    2.05              336455             568.416        -6.89653e+06          1.9521e+08
    2.07              336176             567.662        -6.89262e+06         1.95096e+08
    2.09              335894             566.902        -6.88867e+06          1.9498e+08
    2.11              335610             566.136        -6.88469e+06         1.94864e+08
    2.13              335323             565.364        -6.88066e+06         1.94746e+08
    2.15              335034             564.586        -6.87659e+06         1.94627e+08
    2.17              334742             563.802        -6.87249e+06         1.94508e+08
    2.19              334447             563.012        -6.86834e+06         1.94387e+08
    2.21              334150             562.217        -6.86416e+06         1.94265e+08
    2.23              333851             561.415        -6.85993e+06         1.94142e+08
    2.25              333548             560.608        -6.85567e+06         1.94017e+08
    2.27              333244             559.795        -6.85136e+06         1.93892e+08
    2.29              332937             558.977        -6.84702e+06         1.93766e+08
    2.31              332627             558.153        -6.84263e+06         1.93638e+08
    2.33              332314             557.323        -6.83821e+06          1.9351e+08
    2.35              332000             556.488        -6.83374e+06          1.9338e+08
    2.37              331682             555.647        -6.82924e+06          1.9325e+08
    2.39              331362               554.8        -6.82469e+06         1.93118e+08
    2.41              331040             553.948        -6.82011e+06         1.92985e+08
    2.43              330715             553.091        -6.81548e+06         1.92851e+08
    2.45              330388             552.228        -6.81081e+06         1.92716e+08
    2.47              330058             551.361        -6.80611e+06          1.9258e+08
    2.49              329726             550.487        -6.80136e+06         1.92443e+08
    2.51              329391             549.609        -6.79657e+06         1.92305e+08
    2.53              329053             548.725        -6.79174e+06         1.92165e+08
    2.55              328714             547.836        -6.78688e+06         1.92025e+08
    2.57              328371             546.942        -6.78197e+06         1.91883e+08
    2.59              328026             546.042        -6.77702e+06         1.91741e+08
    2.61              327679             545.138        -6.77203e+06         1.91597e+08
    2.63              327330             544.229        -6.76699e+06         1.91453e+08
    2.65              326977             543.314        -6.76192e+06         1.91307e+08
    2.67              326623             542.395        -6.75681e+06          1.9116e+08
    2.69              326266             541.471        -6.75166e+06         1.91012e+08
    2.71              325906             540.541        -6.74646e+06         1.90863e+08
    2.73              325544             539.607        -6.74122e+06         1.90713e+08
    2.75              325180             538.669        -6.73595e+06         1.90562e+08
    2.77              324813             537.725        -6.73063e+06         1.90409e+08
    2.79              324444             536.777        -6.72527e+06         1.90256e+08
    2.81              324072             535.824        -6.71987e+06         1.90101e+08
    2.83              323698             534.866        -6.71443e+06         1.89946e+08
    2.85              323321             533.904        -6.70895e+06         1.89789e+08
    2.87              322942             532.937        -6.70343e+06         1.89632e+08
    2.89              322561             531.966        -6.69786e+06         1.89473e+08
    2.91              322177              530.99        -6.69226e+06         1.89313e+08
    2.93              321791              530.01        -6.68661e+06         1.89152e+08
    2.95              321403             529.025        -6.68092e+06         1.88991e+08
    2.97              321012             528.036        -6.67519e+06         1.88828e+08
    2.99              320619             527.042        -6.66942e+06         1.88664e+08
    3.01              320223             526.045        -6.66361e+06         1.88498e+08
    3.03              319825             525.043        -6.65775e+06         1.88332e+08
    3.05              319425             524.037        -6.65186e+06         1.88165e+08
    3.07              319022             523.026        -6.64592e+06         1.87997e+08
    3.09              318617             522.012        -6.63994e+06         1.87827e+08
    3.11              318209             520.994        -6.63392e+06         1.87657e+08
    3.13              317800             519.971        -6.62786e+06         1.87485e+08
    3.15              317388             518.945        -6.62176e+06         1.87313e+08
    3.17              316973             517.914        -6.61561e+06         1.87139e+08
    3.19              316556              516.88        -6.60942e+06         1.86964e+08
    3.21              316137             515.841        -6.60319e+06         1.86789e+08
    3.23              315716             514.799        -6.59692e+06         1.86612e+08
    3.25              315292             513.753        -6.59061e+06         1.86434e+08
    3.27              314866             512.704        -6.58425e+06         1.86255e+08
    3.29              314438              511.65        -6.57786e+06         1.86075e+08
    3.31              314007             510.593        -6.57142e+06         1.85894e+08
    3.33              313575             509.533        -6.56494e+06         1.85712e+08
    3.35              313139             508.469        -6.55841e+06         1.85528e+08
    3.37              312702             507.401        -6.55185e+06         1.85344e+08
    3.39              312262             506.329        -6.54524e+06         1.85159e+08
    3.41              311820             505.255        -6.53859e+06         1.84973e+08
    3.43              311376             504.176         -6.5319e+06         1.84785e+08
    3.45              310930             503.095        -6.52517e+06         1.84597e+08
    3.47              310481              502.01        -6.51839e+06         1.84407e+08
    3.49              310030             500.922        -6.51158e+06         1.84217e+08
    3.51              309577              499.83        -6.50472e+06         1.84025e+08
    3.53              309121             498.735        -6.49781e+06         1.83832e+08
    3.55              308664             497.637        -6.49087e+06         1.83638e+08
    3.57              308204             496.536        -6.48388e+06         1.83444e+08
    3.59              307742             495.432        -6.47685e+06         1.83248e+08
    3.61              307278             494.325        -6.46978e+06         1.83051e+08
    3.63              306811             493.215        -6.46267e+06         1.82853e+08
    3.65              306343             492.102        -6.45551e+06         1.82654e+08
    3.67              305872             490.986        -6.44831e+06         1.82454e+08
    3.69              305399             489.867        -6.44107e+06         1.82253e+08
    3.71              304924             488.745        -6.43379e+06         1.82051e+08
    3.73              304446              487.62        -6.42646e+06         1.81848e+08
    3.75              303967             486.492        -6.41909e+06         1.81643e+08
    3.77              303485             485.362        -6.41168e+06         1.81438e+08
    3.79              303001             484.229        -6.40423e+06         1.81232e+08
    3.81              302515             483.094        -6.39673e+06         1.81024e+08
    3.83              302027             481.956        -6.38919e+06         1.80816e+08
    3.85              301537             480.815        -6.38161e+06         1.80607e+08
    3.87              301045             479.672        -6.37399e+06         1.80396e+08
    3.89              300551             478.526        -6.36632e+06         1.80185e+08
    3.91              300054             477.378        -6.35861e+06         1.79972e+08
    3.93              299555             476.227        -6.35086e+06         1.79759e+08
    3.95              299055             475.074        -6.34307e+06         1.79544e+08
    3.97              298552             473.919        -6.33523e+06         1.79328e+08
    3.99              298047             472.761        -6.32736e+06         1.79112e+08
    4.01              297540             471.601        -6.31943e+06         1.78894e+08
    4.03              297031             470.439        -6.31147e+06         1.78675e+08
    4.05              296520             469.275        -6.30346e+06         1.78456e+08
    4.07              296007             468.108        -6.29542e+06         1.78235e+08
    4.09              295492              466.94        -6.28732e+06         1.78013e+08
    4.11              294975             465.769        -6.27919e+06          1.7779e+08
    4.13              294455             464.597        -6.27101e+06         1.77566e+08
    4.15              293934             463.422        -6.26279e+06         1.77341e+08
    4.17              293411             462.246        -6.25453e+06         1.77115e+08
    4.19              292886             461.067        -6.24623e+06         1.76888e+08
    4.21              292358             459.887        -6.23788e+06          1.7666e+08
    4.23              291829             458.705        -6.22949e+06         1.76431e+08
    4.25              291298             457.521        -6.22106e+06         1.76201e+08
    4.27              290765             456.335        -6.21259e+06          1.7597e+08
    4.29              290230             455.148        -6.20407e+06         1.75738e+08
    4.31              289692             453.959        -6.19552e+06         1.75505e+08
    4.33              289153             452.768        -6.18692e+06         1.75271e+08
    4.35              288612             451.576        -6.17827e+06         1.75036e+08
    4.37              288069             450.382        -6.16959e+06           1.748e+08
    4.39              287525             449.187        -6.16086e+06         1.74563e+08
    4.41              286978              447.99        -6.15209e+06         1.74325e+08
    4.43              286429             446.792        -6.14328e+06         1.74086e+08
    4.45              285878             445.592        -6.13442e+06         1.73845e+08
