## w(eV)         sigma(Sm^-1)     kappa(W(mK)^-1)        L12/e(Am^-1)      L22/e^2(Wm^-1)
    0.01              171763             6316.57        -6.63497e+06         8.54685e+08
    0.03              171762             6316.77         -6.6352e+06         8.54723e+08
    0.05              171761             6317.19        -6.63566e+06         8.54799e+08
    0.07              171760              6317.8        -6.63634e+06         8.54912e+08
    0.09              171758             6318.63        -6.63726e+06         8.55064e+08
    0.11              171755             6319.66         -6.6384e+06         8.55253e+08
    0.13              171752             6320.89        -6.63977e+06         8.55481e+08
    0.15              171749             6322.33        -6.64137e+06         8.55746e+08
    0.17              171745             6323.97         -6.6432e+06         8.56049e+08
    0.19              171741             6325.82        -6.64526e+06          8.5639e+08
    0.21              171736             6327.88        -6.64755e+06         8.56769e+08
    0.23              171731             6330.14        -6.65006e+06         8.57185e+08
    0.25              171725              6332.6         -6.6528e+06          8.5764e+08
    0.27              171719             6335.26        -6.65577e+06         8.58132e+08
    0.29              171712             6338.13        -6.65897e+06         8.58662e+08
    0.31              171705             6341.21         -6.6624e+06          8.5923e+08
    0.33              171697             6344.48        -6.66606e+06         8.59835e+08
    0.35              171689             6347.96        -6.66994e+06         8.60479e+08
    0.37              171680             6351.64        -6.67405e+06          8.6116e+08
    0.39              171671             6355.52        -6.67839e+06         8.61879e+08
    0.41              171661              6359.6        -6.68295e+06         8.62635e+08
    0.43              171651             6363.88        -6.68775e+06         8.63429e+08
    0.45              171641             6368.36        -6.69277e+06         8.64261e+08
    0.47              171630             6373.04        -6.69801e+06         8.65131e+08
    0.49              171618             6377.92        -6.70349e+06         8.66038e+08
    0.51              171606             6382.99        -6.70919e+06         8.66982e+08
    0.53              171594             6388.27        -6.71511e+06         8.67965e+08
    0.55              171581             6393.74        -6.72127e+06         8.68984e+08
    0.57              171567              6399.4        -6.72765e+06         8.70042e+08
    0.59              171554             6405.26        -6.73425e+06         8.71136e+08
    0.61              171539             6411.31        -6.74108e+06         8.72268e+08
    0.63              171525             6417.56        -6.74814e+06         8.73438e+08
    0.65              171509                6424        -6.75542e+06         8.74645e+08
    0.67              171494             6430.63        -6.76292e+06         8.75889e+08
    0.69              171478             6437.45        -6.77066e+06          8.7717e+08
    0.71              171461             6444.46        -6.77861e+06         8.78489e+08
    0.73              171444             6451.66        -6.78679e+06         8.79845e+08
    0.75              171426             6459.05        -6.79519e+06         8.81238e+08
    0.77              171409             6466.63        -6.80382e+06         8.82668e+08
    0.79              171390             6474.39        -6.81267e+06         8.84136e+08
    0.81              171371             6482.33        -6.82175e+06          8.8564e+08
    0.83              171352             6490.46        -6.83104e+06         8.87181e+08
    0.85              171332             6498.78        -6.84056e+06          8.8876e+08
    0.87              171312             6507.27         -6.8503e+06         8.90375e+08
    0.89              171292             6515.94        -6.86027e+06         8.92027e+08
    0.91              171271              6524.8        -6.87045e+06         8.93716e+08
    0.93              171249             6533.83        -6.88086e+06         8.95442e+08
    0.95              171228             6543.04        -6.89149e+06         8.97204e+08
    0.97              171205             6552.42        -6.90233e+06         8.99003e+08
    0.99              171183             6561.98         -6.9134e+06         9.00839e+08
    1.01              171159             6571.71        -6.92469e+06         9.02711e+08
    1.03              171136             6581.61         -6.9362e+06          9.0462e+08
    1.05              171112             6591.69        -6.94792e+06         9.06565e+08
    1.07              171088             6601.93        -6.95987e+06         9.08546e+08
    1.09              171063             6612.34        -6.97203e+06         9.10564e+08
    1.11              171038             6622.92        -6.98441e+06         9.12618e+08
    1.13              171012             6633.66        -6.99701e+06         9.14708e+08
    1.15              170986             6644.56        -7.00983e+06         9.16834e+08
    1.17              170960             6655.63        -7.02286e+06         9.18997e+08
    1.19              170933             6666.85        -7.03611e+06         9.21195e+08
    1.21              170906             6678.24        -7.04957e+06         9.23429e+08
    1.23              170878             6689.78        -7.06325e+06         9.25699e+08
    1.25              170850             6701.47        -7.07715e+06         9.28005e+08
    1.27              170822             6713.32        -7.09126e+06         9.30347e+08
    1.29              170793             6725.33        -7.10558e+06         9.32724e+08
    1.31              170764             6737.48        -7.12011e+06         9.35136e+08
    1.33              170735             6749.78        -7.13486e+06         9.37584e+08
    1.35              170705             6762.23        -7.14982e+06         9.40068e+08
    1.37              170674             6774.83        -7.16499e+06         9.42587e+08
    1.39              170644             6787.57        -7.18038e+06         9.45141e+08
    1.41              170613             6800.45        -7.19597e+06          9.4773e+08
    1.43              170582             6813.47        -7.21177e+06         9.50354e+08
    1.45              170550             6826.63        -7.22779e+06         9.53013e+08
    1.47              170518             6839.93        -7.24401e+06         9.55707e+08
    1.49              170485             6853.36        -7.26044e+06         9.58435e+08
    1.51              170453             6866.92        -7.27708e+06         9.61199e+08
    1.53              170420             6880.61        -7.29392e+06         9.63996e+08
    1.55              170386             6894.44        -7.31097e+06         9.66829e+08
    1.57              170352             6908.39        -7.32823e+06         9.69696e+08
    1.59              170318             6922.46        -7.34569e+06         9.72597e+08
    1.61              170284             6936.66        -7.36336e+06         9.75532e+08
    1.63              170249             6950.98        -7.38123e+06         9.78501e+08
    1.65              170214             6965.42         -7.3993e+06         9.81504e+08
    1.67              170178             6979.97        -7.41758e+06         9.84541e+08
    1.69              170143             6994.64        -7.43606e+06         9.87612e+08
    1.71              170106             7009.43        -7.45474e+06         9.90717e+08
    1.73              170070             7024.32        -7.47362e+06         9.93855e+08
    1.75              170033             7039.32         -7.4927e+06         9.97026e+08
    1.77              169996             7054.43        -7.51197e+06         1.00023e+09
    1.79              169959             7069.64        -7.53145e+06         1.00347e+09
    1.81              169921             7084.96        -7.55112e+06         1.00674e+09
    1.83              169883             7100.37        -7.57099e+06         1.01004e+09
    1.85              169845             7115.88        -7.59106e+06         1.01338e+09
    1.87              169807             7131.49        -7.61132e+06         1.01675e+09
    1.89              169768             7147.19        -7.63177e+06         1.02015e+09
    1.91              169729             7162.98        -7.65242e+06         1.02359e+09
    1.93              169689             7178.86        -7.67326e+06         1.02705e+09
    1.95              169650             7194.83         -7.6943e+06         1.03055e+09
    1.97              169610             7210.88        -7.71552e+06         1.03408e+09
    1.99              169569             7227.01        -7.73693e+06         1.03765e+09
    2.01              169529             7243.22        -7.75853e+06         1.04124e+09
    2.03              169488             7259.51        -7.78032e+06         1.04487e+09
    2.05              169447             7275.87         -7.8023e+06         1.04852e+09
    2.07              169406             7292.31        -7.82447e+06         1.05221e+09
    2.09              169364             7308.81        -7.84681e+06         1.05593e+09
    2.11              169322             7325.39        -7.86935e+06         1.05969e+09
    2.13              169280             7342.02        -7.89207e+06         1.06347e+09
    2.15              169238             7358.72        -7.91497e+06         1.06728e+09
    2.17              169195             7375.48        -7.93805e+06         1.07112e+09
    2.19              169152              7392.3        -7.96131e+06           1.075e+09
    2.21              169109             7409.17        -7.98475e+06          1.0789e+09
    2.23              169066              7426.1        -8.00837e+06         1.08284e+09
    2.25              169022             7443.07        -8.03217e+06          1.0868e+09
    2.27              168979             7460.09        -8.05614e+06         1.09079e+09
    2.29              168935             7477.16        -8.08029e+06         1.09482e+09
    2.31              168890             7494.27        -8.10462e+06         1.09887e+09
    2.33              168846             7511.42        -8.12911e+06         1.10295e+09
    2.35              168801             7528.61        -8.15378e+06         1.10707e+09
    2.37              168756             7545.83        -8.17862e+06         1.11121e+09
    2.39              168711             7563.08        -8.20363e+06         1.11537e+09
    2.41              168666             7580.37        -8.22881e+06         1.11957e+09
    2.43              168620             7597.68        -8.25416e+06          1.1238e+09
    2.45              168574             7615.01        -8.27967e+06         1.12805e+09
    2.47              168528             7632.37        -8.30535e+06         1.13234e+09
    2.49              168482             7649.75        -8.33119e+06         1.13665e+09
    2.51              168436             7667.14         -8.3572e+06         1.14098e+09
    2.53              168389             7684.55        -8.38336e+06         1.14535e+09
    2.55              168342             7701.96        -8.40969e+06         1.14974e+09
    2.57              168295             7719.39        -8.43618e+06         1.15416e+09
    2.59              168248             7736.82        -8.46282e+06         1.15861e+09
    2.61              168200             7754.26        -8.48962e+06         1.16308e+09
    2.63              168153              7771.7        -8.51658e+06         1.16758e+09
    2.65              168105             7789.13        -8.54369e+06          1.1721e+09
    2.67              168057             7806.56        -8.57096e+06         1.17666e+09
    2.69              168009             7823.99        -8.59837e+06         1.18123e+09
    2.71              167961              7841.4        -8.62594e+06         1.18584e+09
    2.73              167912              7858.8        -8.65365e+06         1.19047e+09
    2.75              167863             7876.19        -8.68151e+06         1.19512e+09
    2.77              167815             7893.56        -8.70952e+06          1.1998e+09
    2.79              167765              7910.9        -8.73767e+06          1.2045e+09
    2.81              167716             7928.23        -8.76597e+06         1.20923e+09
    2.83              167667             7945.53         -8.7944e+06         1.21398e+09
    2.85              167617              7962.8        -8.82298e+06         1.21876e+09
    2.87              167568             7980.04         -8.8517e+06         1.22356e+09
    2.89              167518             7997.24        -8.88055e+06         1.22838e+09
    2.91              167468             8014.41        -8.90954e+06         1.23323e+09
    2.93              167417             8031.54        -8.93867e+06          1.2381e+09
    2.95              167367             8048.63        -8.96792e+06         1.24299e+09
    2.97              167316             8065.67        -8.99731e+06         1.24791e+09
    2.99              167266             8082.67        -9.02683e+06         1.25284e+09
    3.01              167215             8099.62        -9.05648e+06          1.2578e+09
    3.03              167164             8116.51        -9.08625e+06         1.26279e+09
    3.05              167112             8133.35        -9.11615e+06         1.26779e+09
    3.07              167061             8150.14        -9.14617e+06         1.27281e+09
    3.09              167009             8166.86        -9.17632e+06         1.27786e+09
    3.11              166958             8183.52        -9.20658e+06         1.28293e+09
    3.13              166906             8200.11        -9.23697e+06         1.28801e+09
    3.15              166854             8216.64        -9.26747e+06         1.29312e+09
    3.17              166802              8233.1        -9.29809e+06         1.29825e+09
    3.19              166749             8249.48        -9.32882e+06          1.3034e+09
    3.21              166697             8265.79        -9.35966e+06         1.30856e+09
    3.23              166644             8282.02        -9.39061e+06         1.31375e+09
    3.25              166591             8298.17        -9.42167e+06         1.31895e+09
    3.27              166539             8314.23        -9.45284e+06         1.32418e+09
    3.29              166485             8330.21        -9.48412e+06         1.32942e+09
    3.31              166432              8346.1        -9.51549e+06         1.33468e+09
    3.33              166379             8361.91        -9.54697e+06         1.33996e+09
    3.35              166325             8377.61        -9.57855e+06         1.34525e+09
    3.37              166271             8393.23        -9.61023e+06         1.35057e+09
    3.39              166218             8408.74          -9.642e+06          1.3559e+09
    3.41              166164             8424.15        -9.67387e+06         1.36124e+09
    3.43              166109             8439.47        -9.70583e+06         1.36661e+09
    3.45              166055             8454.67        -9.73788e+06         1.37199e+09
    3.47              166000             8469.77        -9.77002e+06         1.37738e+09
    3.49              165946             8484.76        -9.80225e+06         1.38279e+09
    3.51              165891             8499.63        -9.83456e+06         1.38822e+09
    3.53              165836              8514.4        -9.86696e+06         1.39366e+09
    3.55              165781             8529.04        -9.89944e+06         1.39911e+09
    3.57              165726             8543.56        -9.93199e+06         1.40458e+09
    3.59              165670             8557.97        -9.96463e+06         1.41006e+09
    3.61              165614             8572.25        -9.99734e+06         1.41556e+09
    3.63              165559              8586.4        -1.00301e+07         1.42107e+09
    3.65              165503             8600.43         -1.0063e+07         1.42659e+09
    3.67              165447             8614.32        -1.00959e+07         1.43213e+09
    3.69              165390             8628.08        -1.01289e+07         1.43768e+09
    3.71              165334             8641.71        -1.01619e+07         1.44324e+09
    3.73              165277              8655.2        -1.01951e+07         1.44881e+09
    3.75              165220             8668.55        -1.02283e+07         1.45439e+09
    3.77              165163             8681.76        -1.02615e+07         1.45999e+09
    3.79              165106             8694.83        -1.02948e+07         1.46559e+09
    3.81              165049             8707.75        -1.03281e+07         1.47121e+09
    3.83              164991             8720.52        -1.03616e+07         1.47683e+09
    3.85              164933             8733.15         -1.0395e+07         1.48246e+09
    3.87              164875             8745.62        -1.04285e+07         1.48811e+09
    3.89              164817             8757.94        -1.04621e+07         1.49376e+09
    3.91              164759              8770.1        -1.04957e+07         1.49942e+09
    3.93              164700             8782.11        -1.05293e+07         1.50509e+09
    3.95              164642             8793.96         -1.0563e+07         1.51077e+09
    3.97              164583             8805.65        -1.05967e+07         1.51646e+09
    3.99              164524             8817.17        -1.06305e+07         1.52215e+09
    4.01              164464             8828.53        -1.06643e+07         1.52785e+09
    4.03              164405             8839.73        -1.06981e+07         1.53355e+09
    4.05              164345             8850.76        -1.07319e+07         1.53927e+09
    4.07              164285             8861.61        -1.07658e+07         1.54498e+09
    4.09              164225              8872.3        -1.07997e+07         1.55071e+09
    4.11              164164             8882.81        -1.08337e+07         1.55644e+09
    4.13              164104             8893.15        -1.08676e+07         1.56217e+09
    4.15              164043             8903.31        -1.09016e+07         1.56791e+09
    4.17              163982              8913.3        -1.09356e+07         1.57365e+09
    4.19              163920             8923.11        -1.09696e+07         1.57939e+09
    4.21              163859             8932.73        -1.10036e+07         1.58514e+09
    4.23              163797             8942.17        -1.10376e+07         1.59089e+09
    4.25              163735             8951.43        -1.10716e+07         1.59664e+09
    4.27              163673              8960.5        -1.11056e+07          1.6024e+09
    4.29              163610             8969.39        -1.11397e+07         1.60816e+09
    4.31              163547             8978.09        -1.11737e+07         1.61392e+09
    4.33              163484              8986.6        -1.12077e+07         1.61968e+09
    4.35              163421             8994.92        -1.12418e+07         1.62544e+09
    4.37              163357             9003.05        -1.12758e+07          1.6312e+09
    4.39              163293             9010.98        -1.13098e+07         1.63696e+09
    4.41              163229             9018.73        -1.13438e+07         1.64272e+09
    4.43              163164             9026.27        -1.13778e+07         1.64848e+09
    4.45              163099             9033.62        -1.14117e+07         1.65423e+09
